;+
;> DESCRIPTION = 'Filter transmission curve for U-Band'
;> WAVE_UNITS  = '[um]'
;> T_UNITS     = '[]'
;-

;~            WAVE                T
     3.1532000E-01    0.0000000E+00
     3.1578000E-01    0.0000000E+00
     3.1625000E-01    0.0000000E+00
     3.1672000E-01    5.7790000E+00
     3.1718000E-01    1.2847100E+01
     3.1765000E-01    1.6870100E+01
     3.1811000E-01    2.2284300E+01
     3.1858000E-01    1.3763300E+01
     3.1904000E-01    1.6897100E+01
     3.1951000E-01    2.6468800E+01
     3.1998000E-01    2.3918800E+01
     3.2044000E-01    3.2093100E+01
     3.2091000E-01    3.2432900E+01
     3.2137000E-01    3.9420200E+01
     3.2184000E-01    3.9163700E+01
     3.2230000E-01    4.4823900E+01
     3.2277000E-01    5.6127000E+01
     3.2323000E-01    5.7767500E+01
     3.2370000E-01    5.0245100E+01
     3.2417000E-01    4.6375300E+01
     3.2463000E-01    4.5025200E+01
     3.2510000E-01    4.8221400E+01
     3.2556000E-01    6.0409800E+01
     3.2603000E-01    6.8911700E+01
     3.2649000E-01    7.3253000E+01
     3.2696000E-01    6.7667300E+01
     3.2742000E-01    7.1354300E+01
     3.2789000E-01    6.9714500E+01
     3.2835000E-01    6.2563800E+01
     3.2882000E-01    5.7722100E+01
     3.2928000E-01    6.2530700E+01
     3.2975000E-01    6.8078600E+01
     3.3021000E-01    7.6654600E+01
     3.3068000E-01    7.3580500E+01
     3.3114000E-01    7.0661000E+01
     3.3161000E-01    6.5991600E+01
     3.3208000E-01    7.0941800E+01
     3.3254000E-01    8.1102000E+01
     3.3301000E-01    8.1206300E+01
     3.3347000E-01    8.6542900E+01
     3.3394000E-01    8.6578500E+01
     3.3440000E-01    8.1918000E+01
     3.3487000E-01    7.6536900E+01
     3.3533000E-01    7.1379600E+01
     3.3580000E-01    7.1185500E+01
     3.3626000E-01    7.1277300E+01
     3.3672000E-01    7.0742900E+01
     3.3719000E-01    7.6465500E+01
     3.3765000E-01    7.2079100E+01
     3.3812000E-01    6.8286500E+01
     3.3858000E-01    6.8866200E+01
     3.3905000E-01    6.8782300E+01
     3.3951000E-01    7.2233800E+01
     3.3998000E-01    7.3877400E+01
     3.4044000E-01    7.8896100E+01
     3.4091000E-01    7.9988300E+01
     3.4137000E-01    8.1058700E+01
     3.4184000E-01    7.7664700E+01
     3.4230000E-01    8.0909100E+01
     3.4277000E-01    7.8958700E+01
     3.4323000E-01    8.1257300E+01
     3.4370000E-01    8.0605100E+01
     3.4416000E-01    8.1718900E+01
     3.4462000E-01    8.4447900E+01
     3.4509000E-01    8.8395100E+01
     3.4555000E-01    8.8340700E+01
     3.4602000E-01    9.0976900E+01
     3.4648000E-01    8.7965300E+01
     3.4695000E-01    8.8980400E+01
     3.4741000E-01    8.5821100E+01
     3.4787000E-01    8.7457700E+01
     3.4834000E-01    8.7274600E+01
     3.4880000E-01    8.8441200E+01
     3.4927000E-01    8.9195000E+01
     3.4973000E-01    8.9665200E+01
     3.5020000E-01    8.9036700E+01
     3.5066000E-01    8.8202000E+01
     3.5112000E-01    8.7988500E+01
     3.5159000E-01    9.1511400E+01
     3.5205000E-01    9.2945400E+01
     3.5252000E-01    9.6849400E+01
     3.5298000E-01    9.3890300E+01
     3.5344000E-01    9.1763600E+01
     3.5391000E-01    8.8859100E+01
     3.5437000E-01    8.6119400E+01
     3.5484000E-01    8.7408500E+01
     3.5530000E-01    8.7013200E+01
     3.5576000E-01    9.1514400E+01
     3.5623000E-01    9.3891100E+01
     3.5669000E-01    9.8107200E+01
     3.5716000E-01    9.4736100E+01
     3.5762000E-01    9.2370600E+01
     3.5808000E-01    9.1515200E+01
     3.5855000E-01    9.4219000E+01
     3.5901000E-01    9.2353300E+01
     3.5948000E-01    9.0206000E+01
     3.5994000E-01    8.8384400E+01
     3.6040000E-01    9.0923800E+01
     3.6087000E-01    9.3715700E+01
     3.6133000E-01    9.4019300E+01
     3.6179000E-01    9.4167400E+01
     3.6226000E-01    9.1736100E+01
     3.6272000E-01    9.1820300E+01
     3.6318000E-01    8.9868900E+01
     3.6365000E-01    8.9820200E+01
     3.6411000E-01    8.8621700E+01
     3.6458000E-01    8.6508300E+01
     3.6504000E-01    8.5689100E+01
     3.6550000E-01    8.5910700E+01
     3.6597000E-01    8.5661900E+01
     3.6643000E-01    8.2606500E+01
     3.6689000E-01    8.2029800E+01
     3.6736000E-01    8.3988500E+01
     3.6782000E-01    8.6407800E+01
     3.6828000E-01    8.5116800E+01
     3.6875000E-01    8.3577200E+01
     3.6921000E-01    8.1440400E+01
     3.6967000E-01    7.9586800E+01
     3.7014000E-01    7.7091200E+01
     3.7060000E-01    7.5437800E+01
     3.7106000E-01    7.6501700E+01
     3.7153000E-01    7.6347900E+01
     3.7199000E-01    7.6221200E+01
     3.7245000E-01    7.4405300E+01
     3.7291000E-01    7.2558300E+01
     3.7338000E-01    7.1037100E+01
     3.7384000E-01    6.9749800E+01
     3.7430000E-01    6.9510100E+01
     3.7477000E-01    6.7640200E+01
     3.7523000E-01    6.4947800E+01
     3.7569000E-01    6.2818200E+01
     3.7616000E-01    6.1389900E+01
     3.7662000E-01    6.0609300E+01
     3.7708000E-01    5.8267400E+01
     3.7754000E-01    5.6481500E+01
     3.7801000E-01    5.3980500E+01
     3.7847000E-01    5.1959500E+01
     3.7893000E-01    5.0404900E+01
     3.7940000E-01    4.8873900E+01
     3.7986000E-01    4.7409400E+01
     3.8032000E-01    4.5567600E+01
     3.8078000E-01    4.4153600E+01
     3.8125000E-01    4.4082400E+01
     3.8171000E-01    4.3585400E+01
     3.8217000E-01    4.3420300E+01
     3.8263000E-01    4.1670300E+01
     3.8310000E-01    4.0307800E+01
     3.8356000E-01    3.7998900E+01
     3.8402000E-01    3.5068300E+01
     3.8448000E-01    3.1601000E+01
     3.8495000E-01    2.9061000E+01
     3.8541000E-01    2.6962200E+01
     3.8587000E-01    2.4224600E+01
     3.8633000E-01    2.1052800E+01
     3.8680000E-01    1.8800000E+01
     3.8726000E-01    1.7503400E+01
     3.8772000E-01    1.6128300E+01
     3.8818000E-01    1.4535200E+01
     3.8865000E-01    1.3268200E+01
     3.8911000E-01    1.2459700E+01
     3.8957000E-01    1.1404300E+01
     3.9003000E-01    1.0902500E+01
     3.9049000E-01    1.0244000E+01
     3.9096000E-01    9.6278000E+00
     3.9142000E-01    8.6363000E+00
     3.9188000E-01    7.5224000E+00
     3.9234000E-01    6.7308000E+00
     3.9281000E-01    5.5462000E+00
     3.9327000E-01    4.7658000E+00
     3.9373000E-01    4.5433000E+00
     3.9419000E-01    4.2340000E+00
     3.9465000E-01    3.8474000E+00
     3.9512000E-01    3.1813000E+00
     3.9558000E-01    2.2600000E+00
     3.9604000E-01    1.0887000E+00
     3.9650000E-01    1.8320000E-01
     3.9696000E-01    0.0000000E+00
     3.9743000E-01    7.0300000E-02
     3.9789000E-01    1.6480000E-01
     3.9835000E-01    5.8180000E-01
     3.9881000E-01    3.1350000E-01
     3.9927000E-01    1.0780000E-01
     3.9973000E-01    0.0000000E+00
